File: data/extra_edited/Sony Cyber-Shot DSC-HX10V_Hosseini.txt
0	پیش
1	از
2	این
3	و
4	در
5	نقد
6	و
7	بررسی‌های
8	پیشین،
9
10	سال
11	2012
12	را
13	سال
14	دوربین‌های
15	کامپکت
16	سوپرزوم
17	نامیده
18	بودیم.
[0]
[@@@]
0	سالی
1	که
2	در
3	آن
4	به
5	وفور
6	شاهد
7	دوربین
8	هایی
9	با
10	توانایی
11	زوم
12	بالا
13	ولی
14	با
15	بدنه
16	هایی
17	کم
18	و
19	بیش
20	شبیه
21	به
22	دوربین‌های
23	کامپکت
24	معمولی
25	بوده
26	ایم.
[0]
[@@@]
0	می‌توان
1	گفت
2	که
3	کمپانی
4	سونی
5	هرچند
6	که
7	سابقه‌ی
8	بسیار
9	درخشانی
10	در
11	تولید
12	دوربین‌های
13	مختلف
14	در
15	سری
16	Cybershot
17	خود
18	داشته،
19
20	ولی
21	در
22	این
23	زمینه
24	کمی
25	از
26	دیگر
27	برندها
28	عقب
29	مانده
30	بود.
[-1]
[@@@]
0	از
1	دوربین‌های
2	خیلی
3	شاخص
4	در
5	برندهای
6	دیگر
7	می‌توان
8	به
9	Canon
10	SX260
11	HS،
12
13	Fujifilm
14	Finepix
15	F770
16	EXR
17	و
18	Panasonic
19	Lumix
20	TZ30
21	اشاره
22	کرد.
[0]
[@@@]
0	البته
1	سونی
2	سال
3	پیش
4	مدل
5	HX100v
6	را
7	معرفی
8	کرده
9	بود
10	ولی
11	آن
12	دوربین
13	را
14	می‌شد
15	دوربین
16	حرفه‌ای
17	تری
18	دانست
19	که
20	هرچند
21	همچنان
22	آن
23	را
24	جزو
25	کامپکت‌های
26	سوپرزوم
27	قرار
28	دادیم
29	(و
30	همچنین
31	HX200v)،
32
33	ولی
34	در
35	حقیقت
36	با
37	دستگیره‌ی
38	بزرگ
39	و
40	امکانات
41	خاص
42	دیگری
43	که
44	دارد،
45
46	در
47	کلاس
48	دیگری
49	قرار
50	می‌گیرد
51	و
52	قیمت
53	کاملا
54	بالاتری
55	نیز
56	دارد.
[0]
[@@@]
0	اما
1	اکنون
2	سونی
3	با
4	HX10v،
5
6	HX20v
7	و
8
9	HX30v
10	وارد
11	مرحله‌ی
12	تازه‌ای
13	شده
14	است.
[0]
[@@@]
0	همانطور
1	که
2	گفتیم
3	این
4	سه
5	دوربین
6	از
7	نظر
8	طراحی
9	ظاهری
10	تقریبا
11	شبیه
12	به
13	هم
14	هستند.
[0]
[@@@]
0	البته
1	تفاوت
2	هایی
3	به
4	خصوص
5	در
6	دستگیره
7	و
8	قسمت
9	پشتی
10	دوربین
11	دیده
12	می‌شود
13	اما
14	هر
15	سه
16	ابعادی	T
17	کاملا
18	کوچک	O		16
19	و
20	دستگیره‌ای	T
21	نسبتا	OP		20
22	بزرگ
23	و
24	خوب	OP		20
25	دارند.
[+1]
[@@@]
0	البته
1	HX10v	T
2	با
3	ابعاد
4	105X60X34
5	میلی
6	متر
7	کمی
8	از
9	آن
10	دو
11	کوچکتر	O		1
12	و
13	با
14	وزن
15	234
16	گرم
17	کمی
18	سبک	OP		1
19	تر
20	است.
[0]
[@@@]
0	این
1	هم
2	دقیقا
3	به
4	دلیل
5	بهره
6	گیری
7	از
8	لنزی	T
9	کوچکتر	O		8
10	می‌باشد.
[+1]
[@@@]
0	به
1	هر
2	صورت
3	همانند
4	دیگر
5	دوربین‌های
6	سونی
7	سایبرشات،
8
9	HX10v	T
10	هم
11	کاملا
12	خوش	OP		9
13	ساخت
14	و
15	خوش	OP		9
16	دست
17	می‌باشد
18	و
19	با
20	توجه
21	به
22	دستگیره‌ی	T
23	نسبتا	OP		22
24	خوبی
25	که
26	بر
27	روی
28	آن
29	قرار
30	گرفته،
31
32	ارگونومی	T
33	بسیار
34	عالی	OP		32
35	را
36	ارائه
37	می‌دهد
38	که
39	تا
40	حدودی
41	از
42	ارگونومی
43	رقبا
44	در
45	دیگر
46	برندها
47	بهتر
48	می‌باشد.
[+2]
[@@@]
0	بدنه
1	فلزی
2	می‌باشد
3	و
4	سطح
5	دستگیره
6	از
7	جنسی
8	لاستیکی
9	پوشانده
10	شده.
[0]
[@@@]
0	در
1	قسمت
2	پشت
3	دوربین
4	هم
5	جایی
6	برای
7	قرار
8	گرفتن
9	انگشت
10	شست
11	قرار
12	دارد
13	و
14	چینش	T
15	دکمه‌ها
16	و
17	کنترل‌ها
18	نیز
19	عالیست.	OP		14
[+2]
[@@@]
0	همچنین
1	تنوع	T
2	رنگی
3	بسیار
4	خوب	OP		1
5	مشکی،
6
7	سفید،
8
9	قرمز
10	و
11	نقره‌ای
12	را
13	هم
14	ارائه
15	می‌دهد.
[+2]
[@@@]
0	از
1	سنسور
2	تصویر
3	که
4	شروع
5	کنیم،
6
7	باید
8	گفت
9	که
10	تقریبا
11	بهترین	OP		16
12	و
13	با	OP		16
14	کیفیت
15	ترین
16	سنسور	T
17	تصویری
18	که
19	بر
20	روی
21	دوربین‌های
22	کامپکت
23	استفاده
24	شده
25	بر
26	روی
27	این
28	دوربین
29	دیده
30	می‌شود.
[+2]
[@@@]
0	البته
1	در
2	بین
3	سنسورهای
4	1/2.3
5	اینچی
6	و
7	نه
8	بعضی
9	سنسورهای
10	بزرگتر
11	که
12	بر
13	روی
14	بعضی
15	از
16	دوربین‌ها
17	به
18	صورت
19	استثناء
20	استفاده
21	شده
22	اند.
[0]
[@@@]
0	این
1	سنسور
2	از
3	نوع
4	BSI-CMOS
5	می‌باشد
6	و
7	رزولوشن
8	18.1
9	مگاپیکسلی
10	را
11	ارائه
12	می‌دهد.
[0]
[@@@]
0	نخست
1	اینکه
2	رزولوشن	T
3	آن
4	فوق	OP		2
5	العاده
6	زیاد
7	است
8	و
9	به
10	خوبی
11	می‌تواند
12	تفکیک	T
13	جزئیاتی
14	بسیار
15	عالی	OP		12
16	را
17	از
18	خود
19	به
20	نمایش
21	بگذارد.
[+2]
[@@@]
0	تا
1	به
2	حال
3	چنین
4	رزولوشن	T
5	بالایی	OP		4
6	را
7	بر
8	روی
9	هیچ
10	دوربین
11	کامپکتی
12	ندیده
13	بودیم.
[+1]
[@@@]
0	دوم
1	این
2	که
3	از
4	نوع
5	BSI-CMOS
6	می‌باشد.
[0]
[@@@]
0	سنسورهای
1	BSI
2	یا
3	Backlit
4	illuminated
5	CMOS،
6
7	حساسیت	T
8	خیلی
9	بالاتری	OP		7
10	نسبت
11	به
12	نور
13	دارند
14	و
15	در
16	شرایط
17	تاریک
18	تر
19	می‌توانند
20	عکس‌های	T
21	با	OP		20
22	کیفیت
23	تر
24	و
25	با
26	نویز	T
27	کمتری	OP		26
28	را
29	بگیرند.
[+1]
[@@@]
0	بنابراین
1	از
2	کیفیت
3	عکس‌های
4	تولید
5	شده
6	توسط
7	این
8	دوربین
9	انتظار
10	خیلی
11	زیادی
12	داریم.
[0]
[@@@]
0	به
1	همین
2	دلیل
3	نیز
4	گستره‌ی	T
5	حساسیت
6	یا
7	ایزو
8	آن
9	تا
10	12,800
11	است
12	که
13	عالیست.	OP		4
[+2]
[@@@]
0	همچنین
1	کمینه‌ی
2	سرعت
3	شاتر
4	آن
5	نیز
6	تا
7	30
8	ثانیه
9	می‌باشد
10	که
11	دلیلی
12	بر
13	توانایی‌های
14	این
15	دوربین
16	برای
17	عکاسی
18	در
19	شب
20	است.
[+1]
[@@@]
0	این
1	دوربین
2	فلاش
3	Pop-up
4	هم
5	دارد
6	که
7	بردی
8	برابر
9	5.3
10	متر
11	را
12	ارائه
13	می‌دهد.
[0]
[@@@]
0	مودهای	T
1	عکاسی
2	مختلفی	O		0
3	بر
4	روی
5	این
6	دوربین
7	قرار
8	گرفته
9	اند.
[0]
[@@@]
0	این
1	مودهای
2	عکاسی
3	را
4	معمولا
5	بر
6	روی
7	دوربین‌های
8	پیشین
9	سونی
10	سایبرشات
11	هم
12	دیده
13	بودیم.
[0]
[@@@]
0	نخستین
1	و
2	مهم
3	ترین
4	آن‌ها
5	مود
6	عکاسی
7	کاملا
8	اتوماتیک
9	intelligent
10	Auto
11	می‌باشد.
[+1]
[@@@]
0	وقتی
1	دوربین
2	را
3	بر
4	روی
5	این
6	مود
7	قرار
8	می‌دهید،
9
10	دوربین
11	به
12	یک
13	دستگاه
14	کاملا
15	اتوماتیک
16	تبدیل
17	می‌شود.
[0]
[@@@]
0	سپس
1	تنها
2	کاری
3	که
4	برای
5	عکاسی
6	لازم
7	است
8	انجام
9	دهید
10	این
11	است
12	که
13	آن
14	را
15	به
16	سوی
17	سوژه
18	نشانه
19	بروید
20	و
21	دکمه‌ی
22	شاتر
23	را
24	بفشارید
25	تا
26	بهترین	OP		31
27	و
28	با	OP		31
29	کیفیت
30	ترین
31	عکس	T
32	گرفته
33	شود.
[+1]
[@@@]
0	دوربین
1	خود
2	با
3	تشخیص
4	نوع
5	صحنه،
6
7	شرایط
8	نوری
9	و
10	دیگر
11	پارامترها،
12
13	تنظیمات
14	را
15	بر
16	روی
17	بهترین
18	حالت
19	قرار
20	قرار
21	می‌دهد
22	تا
23	بهترین
24	عکس‌ها
25	گرفته
26	شود.
[+1]
[@@@]
0	اما
1	به
2	جز
3	این
4	مود،
5
6	HX10v
7	خوشبختانه
8	از
9	مودهای
10	Program
11	و
12	Manual
13	Exposure
14	هم
15	بهره
16	می‌برد.
[+1]
[@@@]
0	در
1	مود
2	Program
3	اختیاراتی
4	نسبی
5	در
6	تنظیمات
7	نوردهی
8	خواهید
9	داشت
10	و
11	این
12	در
13	حالیست
14	که
15	در
16	مود
17	Manual
18	می‌توانید
19	به
20	طور
21	کامل
22	تنظیمات
23	نوردهی
24	را
25	در
26	دست
27	بگیرید.
[0]
[@@@]
0	این
1	دوربین
2	از
3	مود
4	Sweep
5	Panorama
6	که
7	زمان
8	زیادی
9	است
10	آن
11	را
12	بر
13	روی
14	دوربین‌های
15	سونی
16	می‌بینیم
17	هم
18	بهره
19	می‌برد.
[0]
[@@@]
0	با
1	استفاده
2	از
3	این
4	مود
5	عکاسی
6	می‌توانید
7	به
8	آسانی
9	هرچه
10	تمام
11	تر
12	عکس‌های	T
13	بسیار
14	عریض	OP		12
15	پانوراما
16	تهیه
17	کنید.
[+1]
[@@@]
0	همچنین
1	این
2	دوربین
3	مود
4	عکاسی
5	3D
6	یا
7	سه
8	بعدی
9	هم
10	دارد.
[0]
[@@@]
0	با
1	استفاده
2	از
3	این
4	مود
5	می‌توانید
6	عکس‌های
7	سه
8	بعدی
9	بگیرید
10	و
11	سپس
12	آن‌ها
13	را
14	بر
15	روی
16	تلوزیون‌های
17	سه
18	بعدی
19	مشاهده
20	کنید.
[0]
[@@@]
0	از
1	دیگر
2	مودهای
3	موجود
4	بر
5	روی
6	این
7	دوربین
8	می‌توان
9	به
10	Superior
11	Auto،
12
13	Easy
14	Shooting،
15
16	Scene
17	selection،
18
19	Picture
20	Effect
21	و
22	Background
23	defocus
24	اشاره
25	کرد.
[0]
[@@@]
0	اما
1	بهتر
2	است
3	به
4	سراغ
5	ویژگی
6	خاص
7	این
8	دوربین
9	یعنی
10	لنز
11	آن
12	برویم.
[0]
[@@@]
0	به
1	دلیل
2	وجود
3	لنز
4	25-400
5	میلی
6	متر
7	با
8	توانایی
9	زوم
10	16
11	برابر،
12
13	HX10v
14	به
15	یک
16	دوربین
17	کامپکت
18	سوپرزوم
19	تبدیل
20	شده
21	است.
[0]
[@@@]
0	این
1	لنز
2	در
3	حالت
4	واید
5	25
6	میلی
7	متر
8	به
9	راحتی
10	توانایی
11	پوشش
12	میدان	T
13	دیدی
14	بسیار
15	گسترده	OP		12
16	را
17	دارد
18	تا
19	بتوانید
20	در
21	یک
22	کادر
23	عکس
24	یک
25	چشم
26	انداز
27	گسترده‌ی
28	طبیعی
29	را
30	بگیرید.
[+1]
[@@@]
0	ولی
1	اگر
2	همچنان
3	به
4	نظرتان
5	میدان
6	دید
7	کمی
8	می‌آید،
9
10	می‌توانید
11	از
12	مود
13	عکاسی
14	Sweep
15	Panorama
16	استفاده
17	کنید
18	تا
19	حتی
20	بتوانید
21	میدان
22	دید
23	180
24	و
25	یا
26	360
27	درجه
28	را
29	ثبت
30	کنید.
[0]
[@@@]
0	به
1	هر
2	صورت
3	فاصله‌ی
4	کانونی
5	معادل
6	25
7	میلی
8	متر
9	باعث
10	شده
11	است
12	که
13	این
14	دوربین
15	یکی
16	از
17	وایدترین	OP		18
18	لنزها	T
19	را
20	در
21	بین
22	دوربین‌های
23	غیر
24	DSLR
25	داشته
26	باشد.
[+1]
[@@@]
0	بزرگنمایی	T
1	16
2	برابر
3	نیز
4	کاملا
5	برای
6	ثبت
7	سوژه‌های
8	دوردست
9	مناسب	OP		0
10	می‌باشد.
[+1]
[@@@]
0	این
1	دوربین
2	مجهز
3	به
4	فن
5	آوری
6	لرزش
7	گیر
8	اپتیکال
9	Steady
10	Shot
11	می‌باشد
12	تا
13	بدین
14	ترتیب
15	لرزش
16	دست
17	شما
18	اثر
19	کمتری
20	در
21	عکسی
22	که
23	می‌گیرید
24	داشته
25	باشد
26	و
27	حتی
28	در
29	صورت
30	استفاده
31	از
32	زوم
33	بالا
34	یا
35	سرعت
36	شاتر
37	پایین
38	هم
39	بتوانید
40	عکس
41	هایی
42	شارپ
43	داشته
44	باشید.
[+1]
[@@@]
0	کمینه‌ی	T
1	نسبت
2	کانونی
3	این
4	لنز
5	f/3.3-5.9
6	است
7	که
8	برای
9	عکاسی
10	در
11	شرایط
12	ضعیف
13	نوری
14	نسبتا	OP		0
15	خوب
16	است.
[+1]
[@@@]
0	کمینه‌ی	T
1	فاصله‌ی
2	فوکوس
3	این
4	لنز
5	در
6	مود
7	ماکرو
8	5
9	سانتی
10	متر
11	است
12	که
13	عالیست.	OP		0
[+2]
[@@@]
0	اما
1	HX10v
2	مجهز
3	به
4	نمایشگر
5	3
6	اینچی
7	با
8	رزولوشن
9	921,000
10	پیکسل
11	می‌باشد.
[0]
[@@@]
0	هم
1	نمایشگر
2	ابعاد	T
3	بزرگ	OP		2
4	و
5	خوبی	OP		2
6	دارد
7	و
8	هم
9	اینکه
10	رزولوشن	T
11	آن
12	فوق	OP		10
13	العاده
14	است.
[0]
[@@@]
0	نمایشگر	T
1	بسیار
2	با	OP		0
3	کیفیت
4	می‌باشد
5	و
6	کادر
7	بندی
8	و
9	تماشای	T
10	عکس‌ها
11	از
12	طریق
13	آن
14	بسیار
15	لذت	OP		9
16	بخش
17	است.
[+2]
[@@@]
0	این
1	دوربین
2	توانایی
3	عکاسی
4	پیاپی
5	با
6	سرعت
7	10
8	فریم
9	بر
10	ثانیه
11	را
12	نیز
13	دارد
14	که
15	باز
16	هم
17	فوق
18	العاده
19	است.
[+2]
[@@@]
0	بدین
1	ترتیب
2	وقتی
3	بر
4	روی
5	مود
6	عکاسی
7	پیاپی
8	می‌روید،
9
10	کافیست
11	که
12	انگشت
13	خود
14	را
15	بر
16	روی
17	دکمه‌ی
18	شاتر
19	فشار
20	دهید
21	و
22	نگه
23	دارید
24	تا
25	دوربین
26	به
27	صورت
28	خودکار
29	و
30	با
31	سرعت
32	10
33	فریم
34	بر
35	ثانیه
36	عکس
37	بگیرد.
[0]
[@@@]
0	اما
1	HX10v
2	توانایی
3	ضبط
4	ویدیویی
5	1920X1080p
6	Full
7	HD
8	با
9	سرعت
10	60
11	فریم
12	بر
13	ثانیه
14	و
15	صدای
16	استریو
17	را
18	نیز
19	دارد.
[+1]
[@@@]
0	فیلم‌ها
1	کیفیت	T
2	فوق	OP		1
3	العاده
4	بالایی
5	دارند
6	و
7	در
8	فرمت
9	MPEG4
10	و
11	AVCHD
12	ذخیره
13	می‌شوند.
[+2]
[@@@]
0	پورت
1	HDMI
2	نیز
3	برای
4	انتقال
5	و
6	پخش
7	مستقیم
8	عکس‌ها
9	و
10	فیلم‌های
11	گرفته
12	شده
13	بر
14	روی
15	تلوزیون
16	دیجیتال
17	و
18	HDTV
19	هم
20	وجود
21	دارد.
[0]
[@@@]
0	عکس‌ها
1	و
2	فیلم‌ها
3	می‌توانند
4	بر
5	روی
6	کارت‌های
7	حافظه‌ی
8	SD/SDHC/SDXC/Memory
9	Stick
10	Duo,Pro
11	Duo,Pro
12	HG
13	Duo
14	ذخیره
15	شوند.
[0]
[@@@]
0	انرژی
1	این
2	دوربین
3	از
4	طریق
5	باتری
6	لیتیوم-یونی
7	قابل
8	شارژ
9	NP-BG1
10	تامین
11	می‌شود
12	که
13	در
14	هر
15	بار
16	شارژ
17	کامل
18	توانایی
19	پشتیبانی
20	برای
21	گرفتن
22	تا
23	320
24	عکس
25	را
26	دارد.
[0]
[@@@]
0	این
1	دوربین
2	GPS
3	داخلی
4	هم
5	دارد
6	که
7	بدین
8	ترتیب
9	وقتی
10	که
11	آن
12	را
13	روشن
14	می‌کنید
15	موقعیت
16	دقیق
17	مکانی
18	عکس
19	گرفته
20	شده
21	به
22	همراه
23	دیگر
24	اطلاعات
25	عکس
26	ثبت
27	می‌شود.
[+1]
[@@@]
0	به
1	هر
2	صورت
3	همانطور
4	که
5	گفتیم،
6
7	HX10v	T
8	یکی
9	از
10	پیشرفته	OP		7
11	ترین،
12
13	پر	OP		7
14	امکانات
15	ترین
16	و
17	خوش	OP		7
18	ساخت
19	ترین
20	دوربین‌های
21	کامپکت
22	سوپرزومی
23	است
24	که
25	تا
26	به
27	حال
28	دیده
29	ایم.
[+2]
[@@@]
0	همانطور
1	که
2	اشاره
3	کردیم
4	تقریبا
5	تنها
6	تفاوت
7	آن
8	با
9	HX20v
10	نیز
11	در
12	لنز
13	با
14	توانایی
15	زوم
16	کمتر
17	آن
18	می‌باشد
19	که
20	البته
21	بزرگنمایی
22	4
23	برابر
24	خیلی
25	تفاوت
26	زیادی
27	نیست
28	ولی
29	به
30	هر
31	صورت
32	اختلاف
33	قیمت
34	ایجاد
35	کرده
36	است.
[0]
[@@@]
0	در
1	آینده
2	سعی
3	می‌کنیم
4	اطلاعات
5	بیشتری
6	از
7	این
8	محصول
9	ارائه
10	دهیم.
[0]
[@@@]